B.E.(eV)	Raw	Intensity	BG	Sum	Background	Peak	1	LAST	2
970.08	-714.199999999997	83398.98	82680.4	39.9900000000052	44.9900000000052	26.3300000000018	102.889999999999	504.37000000001	-1144.547
969.98	123.809999999998	83365.03	82624.69	40.3199999999924	45.2599999999948	26.5200000000041	104.399999999994	523.830000000002	-616.5313
969.88	25.1900000000023	83332.2	82568.91	40.6600000000035	45.5399999999936	26.7200000000012	105.970000000001	544.410000000004	-738.0938
969.78	-652.550000000003	83300.5	82513.05	40.9899999999907	45.8099999999977	26.8999999999942	107.539999999994	566.199999999997	-1440
969.68	798.710000000007	83270.13	82457.09	41.3399999999965	46.0899999999965	27.1100000000006	109.169999999998	589.350000000006	-14.33594
969.58	-353.809999999998	83241.2	82401.11	41.6900000000023	46.3699999999954	27.3000000000029	110.819999999992	613.910000000004	-1193.898
969.48	-654.520000000004	83213.78	82345.02	42.0399999999936	46.6499999999942	27.5099999999948	112.509999999995	640.059999999998	-1523.281
969.38	-372.440000000002	83188.02	82288.84	42.3899999999994	46.9300000000076	27.6999999999971	114.240000000005	667.900000000009	-1271.617
969.28	213.740000000005	83164.11	82232.56	42.7600000000093	47.2200000000012	27.9199999999983	116.020000000004	697.64	-717.8125
969.18	481.5	83142.24	82176.2	43.1300000000047	47.5100000000093	28.1200000000099	117.830000000002	729.460000000007	-484.5391
969.08	-1404.38	83122.64	82119.78	43.4900000000052	47.8000000000029	28.3300000000018	119.690000000002	763.559999999998	-2407.242
968.98	-1405.65999999999	83105.56	82063.26	43.8700000000099	48.0900000000111	28.5400000000082	121.590000000011	800.210000000007	-2447.961
968.88	96.9199999999983	83091.18	82006.58	44.25	48.3899999999994	28.75	123.539999999994	839.669999999998	-987.6797
968.78	-1181.15000000001	83079.96	81949.85	44.6299999999901	48.6999999999971	28.9700000000012	125.529999999999	882.279999999999	-2311.258
968.68	-756.979999999996	83072.23	81892.98	45.0299999999988	49	29.1900000000023	127.580000000002	928.460000000007	-1936.227
968.58	-186.130000000005	83068.4	81836.03	45.4199999999983	49.3099999999977	29.4100000000035	129.669999999998	978.570000000007	-1418.5
968.48	631.939999999988	83069.02	81778.96	45.8199999999924	49.6100000000006	29.6299999999901	131.809999999998	1033.18999999999	-658.125
968.38	751.760000000009	83074.66	81721.84	46.2300000000105	49.9300000000076	29.8600000000006	134.010000000009	1092.81	-601.0625
968.28	-800.059999999998	83086	81664.66	46.6399999999994	50.2399999999907	30.0899999999965	136.26999999999	1158.12	-2221.398
968.18	627.619999999995	83103.76	81607.38	47.0499999999884	50.5499999999884	30.3199999999924	138.569999999992	1229.87999999999	-868.7578
968.08	636.89	83128.72	81550.01	47.4700000000012	50.8700000000099	30.5500000000029	140.940000000002	1308.86	-941.8203
967.98	374.819999999992	83161.91	81492.58	47.8999999999942	51.1999999999971	30.7899999999936	143.369999999995	1396.05	-1294.508
967.88	863.240000000005	83204.2	81435.06	48.3399999999965	51.5299999999989	31.0299999999988	145.869999999995	1492.39	-905.9063
967.78	223.220000000001	83256.83	81377.48	48.7700000000041	51.8600000000006	31.2700000000041	148.419999999998	1599.02	-1656.125
967.68	532.270000000004	83321.09	81319.83	49.2200000000012	52.1900000000023	31.5200000000041	151.050000000003	1717.27	-1468.992
967.58	1095.71000000001	83398.1	81262.09	49.6699999999983	52.5200000000041	31.7600000000093	153.75	1848.3	-1040.305
967.48	2167.12	83489.48	81204.28	50.1300000000047	52.8699999999954	32.0200000000041	156.520000000004	1993.67	-118.0859
967.38	879.25	83596.59	81146.45	50.6000000000058	53.2100000000064	32.2700000000041	159.360000000001	2154.68000000001	-1570.883
967.28	1782.64999999999	83720.97	81088.55	51.0800000000018	53.5599999999977	32.5399999999936	162.289999999994	2332.97	-849.7656
967.18	2531.7	83864.34	81030.6	51.5499999999884	53.909999999989	32.7899999999936	165.289999999994	2530.2	-302.0391
967.08	2756.16	84028.08	80972.64	52.0299999999989	54.2599999999948	33.0599999999977	168.380000000005	2747.72	-299.2813
966.98	3814.23999999999	84214.02	80914.66	52.5299999999989	54.6199999999954	33.3199999999924	171.559999999998	2987.34	514.8828
966.88	4037.5	84423.32	80856.7	53.0200000000041	54.9700000000012	33.5899999999965	174.809999999998	3250.21000000001	470.8828
966.78	2771.95	84657.49	80798.75	53.5200000000041	55.3399999999965	33.8699999999954	178.169999999998	3537.84	-1086.789
966.68	6622.33	84917.81	80740.77	54.0399999999936	55.7099999999919	34.1399999999994	181.639999999999	3851.53	2445.289
966.58	5297.90000000001	85204.85	80682.9	54.5500000000029	56.0800000000018	34.4200000000128	185.190000000002	4191.71000000001	775.9453
966.48	5681.42999999999	85519.38	80625.07	55.0899999999965	56.4499999999971	34.6999999999971	188.849999999991	4559.21999999999	787.1172
966.38	6395.78	85860.77	80567.32	55.6199999999954	56.8299999999872	34.9899999999907	192.619999999995	4953.39	1102.336
966.28	6249.67	86228.27	80509.63	56.1699999999983	57.2099999999919	35.2799999999988	196.5	5373.48	531.0313
966.18	6385.27000000001	86620.12	80452.03	56.7100000000064	57.6000000000058	35.5800000000018	200.509999999995	5817.7	217.1797
966.08	8461.37999999999	87032.38	80394.52	57.2699999999895	57.9799999999959	35.8699999999954	204.62999999999	6282.09	1823.523
965.98	8706.87	87460.48	80337.13	57.8499999999913	58.3899999999994	36.179999999993	208.889999999999	6762.06	1583.523
965.88	10078.4	87896.56	80279.9	58.4100000000035	58.7799999999989	36.4800000000105	213.270000000004	7249.71000000001	2461.734
965.78	8884.26000000001	88331.21	80222.84	59	59.1800000000076	36.7900000000082	217.800000000003	7735.61	775.8906
965.68	10824.66	88752.33	80165.94	59.5899999999965	59.5800000000018	37.0999999999913	222.470000000001	8207.64	2238.273
965.58	9882.06	89144.52	80109.24	60.1999999999971	60	37.4199999999983	227.289999999994	8650.37	846.7813
965.48	9731.58	89491.43	80052.72	60.8000000000029	60.4100000000035	37.7400000000052	232.270000000004	9047.48	292.8672
965.38	9178.92	89774.9	79996.38	61.4199999999983	60.8300000000018	38.0699999999924	237.409999999989	9380.76999999999	-599.6016
965.28	10234.52	89978.23	79940.18	62.0500000000029	61.2600000000093	38.4000000000087	242.730000000011	9633.62000000001	196.4688
965.18	9703.03	90087.41	79884.17	62.6999999999971	61.6800000000076	38.7400000000052	248.229999999996	9791.90000000001	-500.2031
965.08	10294.69	90092.7	79828.31	63.3500000000058	62.1199999999954	39.070000000007	253.910000000004	9845.96000000001	30.29688
964.98	9792.94	89990.91	79772.66	64	62.5500000000029	39.4100000000035	259.789999999994	9792.48	-425.3047
964.88	8992.93000000001	89785.36	79717.17	64.6800000000076	62.9900000000053	39.7599999999948	265.880000000005	9634.88000000001	-1075.258
964.78	9317.09	89485.47	79661.81	65.3600000000006	63.4400000000023	40.1100000000006	272.169999999998	9382.58	-506.5703
964.68	8446.66000000001	89105.23	79606.64	66.0500000000029	63.8899999999994	40.4700000000012	278.699999999997	9049.49000000001	-1051.938
964.58	9295.62999999999	88661.89	79551.57	66.75	64.3399999999965	40.8299999999872	285.449999999997	8652.95	185.3125
964.48	9689.94	88172.76	79496.66	67.4700000000012	64.8099999999977	41.1999999999971	292.470000000001	8210.17	1013.844
964.38	6900.09	87655.22	79441.91	68.1999999999971	65.2799999999989	41.5699999999924	299.729999999996	7738.54	-1313.219
964.28	8393.55	87123.82	79387.25	68.929999999993	65.7400000000053	41.9499999999971	307.270000000004	7252.69	656.9766
964.18	6084.2	86590.74	79332.7	69.6800000000076	66.2200000000012	42.3300000000018	315.100000000006	6764.72	-1173.844
964.08	6192.48	86066.27	79278.22	70.4400000000023	66.6999999999971	42.7099999999919	323.220000000001	6284.98	-595.5703
963.98	7965.41000000001	85557.15	79223.79	71.2100000000064	67.1900000000023	43.1000000000058	331.660000000004	5820.19	1632.055
963.88	6239.52000000001	85069.22	79169.48	72	67.6800000000076	43.5	340.440000000002	5376.12000000001	339.7813
963.78	5388.17999999999	84605.54	79115.22	72.8000000000029	68.1699999999983	43.9100000000035	349.550000000003	4955.88000000001	-102.1406
963.68	5654.40999999999	84167.95	79060.99	73.6199999999954	68.679999999993	44.3099999999977	359.049999999988	4561.31	547.4453
963.58	5653.19	83757.97	79006.81	74.4400000000023	69.1900000000023	44.7299999999959	368.930000000008	4193.88000000001	902.0313
963.48	5699.73	83375.35	78952.67	75.2799999999989	69.7100000000064	45.1500000000087	379.229999999996	3853.32000000001	1277.047
963.38	4789.82999999999	83020.12	78898.57	76.1399999999994	70.2199999999866	45.5699999999924	389.949999999997	3539.67	668.2813
963.28	4591.12000000001	82691.26	78844.48	77.0100000000093	70.75	46.0100000000093	401.12000000001	3251.90000000001	744.3438
963.18	4524.5	82387.51	78790.4	77.8899999999994	71.2700000000041	46.4400000000023	412.790000000008	2988.71000000001	927.3906
963.08	3289.59	82107.88	78736.31	78.7900000000082	71.820000000007	46.8899999999994	424.960000000007	2749.11	-81.97656
962.98	4388.48999999999	81850.63	78682.21	79.7099999999919	72.3600000000006	47.3399999999965	437.679999999993	2531.34	1220.07
962.88	4508.91	81614.51	78628.09	80.6399999999994	72.9100000000035	47.8000000000029	450.960000000007	2334.11	1522.492
962.78	6245.92	81397.87	78573.98	81.5900000000111	73.4700000000012	48.2600000000093	464.860000000001	2155.73000000001	3422.031
962.68	4658.98	81199.15	78519.92	82.5599999999977	74.0299999999989	48.7400000000053	479.400000000009	1994.52	1979.75
962.58	4322.51999999999	81016.98	78465.88	83.5299999999989	74.5899999999965	49.2099999999919	494.619999999995	1849.14	1771.414
962.48	5733.59	80849.74	78411.81	84.5299999999989	75.1699999999983	49.6999999999971	510.580000000002	1717.96000000001	3295.656
962.38	5056.42	80696.29	78357.78	85.5599999999977	75.75	50.1900000000023	527.309999999998	1599.71000000001	2717.914
962.28	4919.33	80555.24	78303.77	86.5899999999965	76.3399999999965	50.6900000000023	544.860000000001	1493.00999999999	2667.859
962.18	3756.03	80425.37	78249.77	87.6399999999994	76.929999999993	51.179999999993	563.279999999999	1396.55	1580.43
962.08	5463.57000000001	80305.71	78195.73	88.7200000000012	77.5400000000082	51.7100000000064	582.660000000004	1309.37000000001	3353.586
961.98	4871.28	80195.23	78141.72	89.8099999999977	78.1399999999994	52.2299999999959	603.029999999999	1230.3	2817.773
961.88	5305.98	80093.16	78087.72	90.929999999993	78.7599999999948	52.7599999999948	624.470000000001	1158.53	3300.539
961.78	4207.07000000001	79998.71	78033.73	92.0599999999977	79.3800000000047	53.2900000000082	647.050000000003	1093.18000000001	2242.086
961.68	4046.88000000001	79911.17	77979.72	93.2200000000012	80.0099999999948	53.8399999999965	670.869999999995	1033.5	2115.43
961.58	4493.51	79830.04	77925.69	94.3999999999942	80.6499999999942	54.3999999999942	696.009999999995	978.89	2589.164
961.48	4914.64	79754.8	77871.66	95.5999999999913	81.3000000000029	54.9599999999919	722.559999999998	928.720000000001	3031.492
961.38	3099.28	79685.1	77817.62	96.820000000007	81.9500000000117	55.5299999999989	750.62000000001	882.550000000003	1231.797
961.28	2842.77	79620.59	77763.53	98.070000000007	82.6199999999954	56.1199999999954	780.330000000002	839.919999999998	985.7109
961.18	2686.21000000001	79560.96	77709.39	99.3399999999965	83.2899999999936	56.6999999999971	811.809999999998	800.419999999998	834.6406
961.08	2945.63000000001	79506.05	77655.17	100.639999999999	83.9700000000012	57.3099999999977	845.190000000003	763.779999999999	1094.75
960.98	2912.19	79455.73	77600.91	101.970000000001	84.6600000000035	57.9199999999983	880.649999999994	729.64	1057.367
960.88	3049.11	79409.94	77546.59	103.309999999998	85.3500000000058	58.5299999999989	918.320000000007	697.820000000007	1185.766
960.78	2810.2	79368.62	77492.2	104.680000000008	86.0599999999977	59.1699999999983	958.440000000003	668.080000000002	933.7813
960.68	2727.75	79331.83	77437.75	106.089999999997	86.7700000000041	59.8000000000029	1001.23	640.199999999997	833.6719
960.58	2645.26	79299.63	77383.24	107.51999999999	87.4899999999907	60.4499999999971	1046.87999999999	614.059999999998	728.8672
960.48	3574.44	79272.16	77328.66	108.970000000001	88.2200000000012	61.1100000000006	1095.73	589.470000000001	1630.938
960.38	1491.17	79249.63	77274.03	110.470000000001	88.9600000000064	61.7799999999989	1148.04000000001	566.350000000006	-484.4219
960.28	2293.39999999999	79232.19	77219.3	111.989999999991	89.7200000000012	62.4700000000012	1204.19	544.539999999994	280.5156
960.18	1590.32000000001	79220.22	77164.48	113.540000000008	90.4700000000012	63.1600000000035	1264.64	523.940000000002	-465.4219
960.08	2154.64	79214.06	77109.56	115.130000000005	91.2400000000053	63.8600000000006	1329.79000000001	504.490000000005	50.14063
959.98	2146.74000000001	79214.27	77054.56	116.740000000005	92.0200000000041	64.5800000000018	1400.29000000001	486.080000000002	-12.96875
959.88	1510.53	79221.32	76999.47	118.389999999999	92.8000000000029	65.3000000000029	1476.7	468.649999999994	-711.3203
959.78	2548.83	79235.96	76944.27	120.069999999992	93.5999999999913	66.0399999999936	1559.83	452.12999999999	257.1406
959.68	2854.92	79259.09	76888.98	121.800000000003	94.4100000000035	66.7900000000082	1650.65000000001	436.440000000002	484.8125
959.58	4149.66	79291.65	76833.64	123.559999999998	95.2299999999959	67.570000000007	1750.09	421.559999999998	1691.648
959.48	3390.05	79334.92	76778.25	125.369999999995	96.0599999999977	68.3399999999965	1859.5	407.399999999994	833.375
959.38	1633	79390.19	76722.8	127.209999999992	96.8999999999942	69.1499999999942	1980.20999999999	393.940000000002	-1034.391
959.28	3489.74000000001	79459.08	76667.26	129.080000000002	97.75	69.9400000000023	2113.92	381.12000000001	697.9219
959.18	3406.23999999999	79543.66	76611.66	131	98.6100000000006	70.7699999999895	2262.69	368.910000000004	474.2422
959.08	2877.40999999999	79645.87	76555.99	132.970000000001	99.4899999999907	71.6100000000006	2428.53	357.279999999999	-212.4688
958.98	2736.74000000001	79768.38	76500.26	134.970000000001	100.37000000001	72.4600000000064	2614.15000000001	346.150000000009	-531.375
958.88	6473.25	79913.77	76444.45	137.020000000004	101.270000000004	73.320000000007	2822.14	335.550000000003	3003.938
958.78	4346.03999999999	80085.35	76388.66	139.119999999995	102.179999999993	74.1999999999971	3055.75	325.429999999993	649.3516
958.68	4621.66	80286.65	76332.84	141.290000000008	103.110000000001	75.1100000000006	3318.58	315.740000000005	667.8516
958.58	5015.11	80521.02	76276.99	143.479999999996	104.039999999994	76.0199999999895	3614.01999999999	306.479999999996	771.0859
958.48	5213.76999999999	80792.8	76221.13	145.720000000001	104.989999999991	76.9400000000023	3946.40999999999	297.599999999991	642.0938
958.38	6234.65	81105.75	76165.25	148.029999999999	105.949999999997	77.8999999999942	4319.51	289.110000000001	1294.148
958.28	6577.61	81464.32	76109.39	150.389999999999	106.930000000008	78.8600000000006	4737.78	280.970000000001	1222.68
958.18	7637.12999999999	81873.12	76053.57	152.809999999998	107.909999999989	79.8399999999965	5205.81999999999	273.159999999989	1817.586
958.08	6139.59999999999	82335.75	75997.8	155.279999999999	108.910000000004	80.8399999999965	5727.23	265.679999999993	-198.3516
957.98	8121.67	82856.68	75942.03	157.809999999998	109.930000000008	81.8699999999954	6306.56	258.490000000005	1207.023
957.88	8429.96000000001	83438.66	75886.34	160.410000000004	110.960000000006	82.9100000000035	6946.46000000001	251.589999999997	877.6328
957.78	8296.67	84084.63	75830.73	163.070000000007	112.010000000009	83.9700000000012	7649.90000000001	244.960000000006	42.77344
957.68	10504.71	84796.38	75775.19	165.789999999994	113.059999999998	85.0399999999936	8418.70999999999	238.580000000002	1483.516
957.58	9980.01000000001	85572.77	75719.79	168.590000000011	114.139999999999	86.1500000000087	9251.66000000001	232.440000000002	127.0234
957.48	11784.7	86411.94	75664.5	171.460000000006	115.229999999996	87.2700000000041	10146.94	226.539999999994	1037.266
957.38	11616.71	87306.69	75609.39	174.399999999994	116.339999999997	88.4199999999983	11097.28	220.860000000001	-80.58594
957.28	13664.06	88246.76	75554.44	177.410000000004	117.449999999997	89.5800000000018	12092.47	215.389999999999	971.7422
957.18	14735.38	89216.25	75499.72	180.509999999995	118.589999999997	90.7799999999989	13116.54	210.110000000001	1018.852
957.08	14601.96	90190.15	75445.24	183.679999999993	119.739999999991	91.9899999999907	14144.46	205.029999999999	-142.9453
956.98	15610.68	91137.89	75391.02	186.940000000002	120.909999999989	93.2299999999959	15145.65	200.119999999995	-136.1875
956.88	17964.13	92018.54	75337.07	190.289999999994	122.099999999991	94.5	16079.19	195.389999999999	1282.664
956.78	17036.62	92786.91	75283.48	193.720000000001	123.300000000003	95.7900000000082	16899.79	190.820000000007	-466.8125
956.68	16252.01	93395.13	75230.19	197.259999999995	124.529999999999	97.0999999999913	17559.64	186.410000000004	-1912.93
956.58	17760.7	93797.84	75177.2	200.880000000005	125.770000000004	98.4400000000024	18013.39	182.150000000009	-859.9453
956.48	19184.26	93961.77	75124.54	204.610000000001	127.030000000013	99.820000000007	18227.73	178.040000000008	347.0313
956.38	20013.74	93869.76	75072.26	208.440000000002	128.310000000012	101.220000000001	18185.46	174.060000000012	1216.242
956.28	17696.82	93525.4	75020.38	212.37999999999	129.599999999991	102.639999999999	17890.17	170.209999999992	-808.1953
956.18	18008.87	92951.27	74968.83	216.440000000002	130.929999999993	104.110000000001	17364.48	166.479999999996	26.42969
956.08	17542.37	92186.13	74917.63	220.599999999991	132.26999999999	105.599999999991	16647.14	162.87999999999	273.8672
955.98	17048.26	91275.6	74866.74	224.889999999999	133.639999999999	107.12999999999	15783.81	159.399999999994	639.3984
955.88	15024.13	90268.71	74816.17	229.309999999998	135.009999999995	108.680000000008	14823.53	156.020000000004	-428.4141
955.78	14607.44	89209.16	74765.86	233.839999999997	136.410000000004	110.270000000004	13810.02	152.75	164.1406
955.68	13291.12	88133.45	74715.78	238.529999999999	137.839999999997	111.899999999994	12779.83	149.580000000002	-126.5547
955.58	13412.19	87071.99	74665.91	243.360000000001	139.289999999994	113.569999999992	11763.39	146.5	1006.109
955.48	13285.16	86044.83	74616.24	248.319999999992	140.75	115.26999999999	10780.74	143.51999999999	1856.57
955.38	13449.92	85067.73	74566.78	253.440000000002	142.240000000005	117	9847.65	140.630000000005	2948.969
955.28	11273.58	84149.2	74517.52	258.709999999992	143.75	118.76999999999	8972.61	137.819999999992	1641.906
955.18	9909.3	83293.66	74468.4	264.150000000009	145.300000000003	120.590000000011	8160.11	135.100000000006	1084.039
955.08	9345.22	82503.98	74419.38	269.779999999999	146.869999999995	122.459999999992	7413.04	132.459999999992	1260.625
954.98	8398.95	81778.91	74370.45	275.570000000007	148.460000000006	124.360000000001	6730.18000000001	129.889999999999	990.4844
954.88	8168.81	81117.46	74321.59	281.550000000003	150.070000000007	126.300000000003	6110.54000000001	127.389999999999	1372.938
954.78	6584.73	80516.28	74272.77	287.729999999996	151.709999999992	128.289999999994	5550.78	124.970000000001	341.2188
954.68	6527.35000000001	79971.46	74223.95	294.12000000001	153.389999999999	130.339999999997	5047.05	122.62000000001	779.8359
954.58	6555.25	79479.64	74175.15	300.710000000006	155.080000000002	132.430000000008	4595.94	120.330000000002	1250.758
954.48	5967.46000000001	79036.02	74126.34	307.540000000008	156.820000000007	134.570000000007	4192.66	118.110000000001	1057.781
954.38	6176.28	78636.77	74077.52	314.569999999992	158.569999999992	136.75	3833.4	115.929999999993	1617.031
954.28	5512.41	78277.42	74028.69	321.860000000001	160.349999999991	139	3513.67999999999	113.830000000002	1263.68
954.18	4582.77	77953.71	73979.83	329.419999999998	162.169999999998	141.300000000003	3229.2	111.779999999999	608.8906
954.08	4041.28	77662.05	73930.92	337.240000000005	164.020000000004	143.669999999998	2976.43000000001	109.790000000008	310.1484
953.98	3957.06	77398.51	73881.94	345.330000000002	165.899999999994	146.080000000002	2751.42	107.839999999997	440.4922
953.88	3213.61	77160.02	73832.89	353.699999999997	167.809999999998	148.559999999998	2551.11	105.949999999997	-113.5156
953.78	3928.27	76943.41	73783.73	362.389999999999	169.75	151.100000000006	2372.32000000001	104.110000000001	768.5938
953.68	3501.7	76745.92	73734.5	371.410000000004	171.729999999996	153.699999999997	2212.27	102.320000000007	490.2813
953.58	1719.32000000001	76565.32	73685.18	380.75	173.730000000011	156.380000000005	2068.70000000001	100.570000000007	-1160.82
953.48	1617.17	76399.31	73635.73	390.449999999997	175.790000000008	159.12000000001	1939.36	98.8600000000006	-1146.414
953.38	926.369999999996	76246.2	73586.13	400.51999999999	177.860000000001	161.929999999993	1822.53999999999	97.1999999999971	-1733.703
953.28	2506.42	76104.34	73536.38	410.970000000001	179.989999999991	164.830000000002	1716.58	95.5699999999924	-61.54688
953.18	-19.3799999999901	75972.34	73486.48	421.860000000001	182.150000000009	167.809999999998	1620.05	94	-2505.234
953.08	923.489999999991	75849.12	73436.41	433.149999999994	184.360000000001	170.860000000001	1531.89	92.4700000000012	-1489.219
952.98	138.920000000013	75733.62	73386.18	444.910000000004	186.590000000011	173.980000000011	1451	90.9500000000117	-2208.516
952.88	146.25	75625.05	73335.75	457.14	188.869999999995	177.199999999997	1376.61	89.4799999999959	-2143.055
952.78	-48.1399999999994	75522.73	73285.14	469.880000000005	191.190000000002	180.520000000004	1307.95	88.0599999999977	-2285.727
952.68	253.059999999998	75425.99	73234.34	483.160000000004	193.559999999998	183.919999999998	1244.37000000001	86.6600000000035	-1938.594
952.58	382.949999999997	75334.4	73183.35	496.989999999991	195.959999999992	187.419999999998	1185.39999999999	85.2899999999936	-1768.102
952.48	-231.990000000005	75247.5	73132.19	511.410000000004	198.410000000004	191.009999999995	1130.50999999999	83.9499999999971	-2347.297
952.38	370.970000000001	75164.97	73080.83	526.470000000001	200.910000000004	194.720000000001	1079.39	82.6499999999942	-1713.172
952.28	-180.669999999998	75086.45	73029.27	542.179999999993	203.459999999992	198.529999999999	1031.64	81.3799999999901	-2237.844
952.18	-198.520000000004	75011.7	72977.52	558.610000000001	206.059999999998	202.459999999992	986.929999999993	80.1399999999994	-2232.703
952.08	-1577.48999999999	74940.52	72925.59	575.770000000004	208.699999999997	206.480000000011	945.059999999998	78.9100000000035	-3592.422
951.98	-300.299999999988	74872.65	72873.4	593.730000000011	211.400000000009	210.650000000009	905.740000000005	77.7300000000105	-2299.547
951.88	-1634.12000000001	74808.02	72821.02	612.51999999999	214.139999999999	214.929999999993	868.819999999993	76.5699999999924	-3621.117
951.78	-64.2899999999936	74746.4	72768.39	632.199999999997	216.949999999997	219.350000000006	834.070000000007	75.4300000000076	-2042.297
951.68	-553.670000000013	74687.77	72715.57	652.839999999997	219.809999999998	223.909999999989	801.309999999998	74.3199999999924	-2525.867
951.58	-537.449999999997	74632.02	72662.55	674.470000000001	222.720000000001	228.599999999991	770.429999999993	73.2299999999959	-2506.922
951.48	-99.6100000000006	74579.1	72609.31	697.210000000007	225.699999999997	233.449999999997	741.279999999999	72.1699999999983	-2069.398
951.38	446.919999999998	74528.96	72555.88	721.059999999998	228.739999999991	238.440000000002	713.720000000001	71.1399999999994	-1526.164
951.28	-1474.17	74481.59	72502.27	746.14	231.830000000002	243.599999999991	687.649999999994	70.1100000000006	-3453.492
951.18	-254.029999999999	74436.95	72448.43	772.550000000003	234.980000000011	248.920000000013	662.950000000012	69.1200000000099	-2242.547
951.08	-1055.19	74395.05	72394.39	800.339999999997	238.199999999997	254.419999999998	639.550000000003	68.1399999999994	-3055.844
950.98	-455.230000000011	74355.93	72340.13	829.669999999998	241.5	260.099999999991	617.330000000002	67.179999999993	-2471.031
950.88	-504.549999999988	74319.59	72285.65	860.600000000006	244.850000000006	265.980000000011	596.260000000009	66.25	-2538.484
950.78	-1795.78	74286.15	72230.98	893.279999999999	248.279999999999	272.040000000008	576.220000000001	65.3300000000018	-3850.945
950.68	-1275.66	74255.64	72176.06	927.880000000005	251.779999999999	278.330000000002	557.160000000004	64.4400000000023	-3355.242
950.58	-2011.41	74228.18	72120.91	964.5	255.360000000001	284.830000000002	539.029999999999	63.5699999999924	-4118.68
950.48	20.8799999999901	74203.88	72065.52	1003.36	259.009999999995	291.559999999998	521.75	62.6999999999971	-2117.484
950.38	-434.540000000008	74182.95	72009.94	1044.63	262.729999999996	298.509999999995	505.279999999999	61.8499999999913	-2607.555
950.28	-389.559999999998	74165.59	71954.16	1088.55	266.539999999994	305.720000000001	489.569999999993	61.0299999999989	-2600.984
950.18	-8.47000000000117	74152.02	71898.17	1135.41	270.449999999997	313.210000000006	474.570000000007	60.2200000000012	-2262.313
950.08	-722.690000000002	74142.45	71841.99	1185.42	274.419999999998	320.949999999997	460.25	59.4199999999983	-3023.156
949.98	-691.110000000001	74137.27	71785.61	1238.99000000001	278.490000000005	328.979999999996	446.550000000003	58.6499999999942	-3042.773
949.88	25.9799999999959	74136.77	71729.02	1296.42999999999	282.639999999999	337.319999999992	433.459999999992	57.8799999999901	-2381.766
949.78	-706.840000000011	74141.36	71672.24	1358.2	286.899999999994	345.970000000001	420.919999999998	57.1399999999994	-3175.961
949.68	901.440000000003	74151.59	71615.26	1424.81000000001	291.25	354.960000000006	408.910000000004	56.4000000000087	-1634.891
949.58	309.990000000005	74167.96	71558.11	1496.75	295.699999999997	364.300000000003	397.419999999998	55.679999999993	-2299.859
949.48	-253.389999999999	74191.11	71500.79	1574.72	300.25	374	386.380000000005	54.9700000000012	-2943.711
949.38	-397.770000000004	74221.7	71443.27	1659.34999999999	304.909999999989	384.089999999997	375.819999999992	54.2799999999989	-3176.203
949.28	33.0400000000082	74260.53	71385.56	1751.46000000001	309.669999999998	394.580000000002	365.660000000004	53.6000000000058	-2841.93
949.18	619.130000000005	74308.6	71327.67	1852.03	314.559999999998	405.509999999995	355.910000000004	52.9300000000076	-2361.805
949.08	329.480000000011	74366.79	71269.62	1961.92	319.540000000008	416.89	346.540000000008	52.2700000000041	-2767.688
948.98	1293.71000000001	74436.34	71211.39	2082.38000000001	324.660000000004	428.75	337.520000000004	51.6300000000047	-1931.234
948.88	1996.58	74518.34	71153.02	2214.45999999999	329.889999999999	441.099999999991	328.860000000001	51	-1368.742
948.78	2206.37999999999	74614.27	71094.52	2359.58	335.25	453.989999999991	320.529999999999	50.3799999999901	-1313.367
948.68	1235.19	74725.67	71035.91	2519.28	340.75	467.459999999992	312.5	49.7699999999895	-2454.57
948.58	2102.35000000001	74853.88	70977.15	2694.90000000001	346.380000000005	481.510000000009	304.770000000004	49.1700000000128	-1774.383
948.48	2977.92999999999	75000.84	70918.27	2888.31999999999	352.159999999989	496.199999999997	297.319999999992	48.5899999999965	-1104.641
948.38	2287.2	75168.1	70859.3	3101.03	358.080000000002	511.559999999998	290.149999999994	48.0099999999948	-2021.602
948.28	3709.77	75357.6	70800.23	3334.96000000001	364.130000000005	527.610000000001	283.220000000001	47.4400000000023	-847.6016
948.18	4348.71000000001	75571.48	70741.09	3592.15000000001	370.360000000001	544.440000000002	276.540000000008	46.8899999999994	-481.6797
948.08	5629.31	75811.32	70681.89	3874.2	376.740000000005	562.070000000007	270.089999999997	46.3399999999965	499.8828
947.98	5409.92000000001	76079.5	70622.68	4183.3	383.290000000008	580.560000000012	263.860000000001	45.8000000000029	-46.89844
947.88	7418.93999999999	76377.5	70563.46	4520.96999999999	390	599.949999999997	257.839999999997	45.2699999999895	1604.898
947.78	6811.53	76707.41	70504.27	4889.12999999999	396.899999999994	620.330000000002	252.029999999999	44.7599999999948	608.3828
947.68	6019.48000000001	77071.13	70445.12	5289.62000000001	403.970000000001	641.760000000009	246.400000000009	44.25	-606.5313
947.58	8382.64	77469.59	70385.96	5723.37	411.25	664.299999999988	240.979999999996	43.7399999999907	1299.008
947.48	8958.31999999999	77904.54	70326.88	6191.92	418.709999999992	688.049999999988	235.709999999992	43.25	1380.664
947.38	10278.31	78376.1	70267.89	6695.34	426.380000000005	713.089999999997	230.630000000005	42.7700000000041	2170.102
947.28	11394.78	78884.7	70209.02	7233.89	434.26999999999	739.539999999994	225.699999999997	42.2899999999936	2719.102
947.18	12565.18	79430.04	70150.32	7807.09	442.37999999999	767.51999999999	220.919999999998	41.8199999999924	3285.461
947.08	12075.99	80009.69	70091.81	8412.39	450.710000000007	797.119999999996	216.309999999998	41.3600000000006	2158.109
946.98	13289.11	80621.31	70033.49	9047.29	459.279999999999	828.529999999999	211.819999999992	40.9099999999889	2701.289
946.88	14171.11	81259.33	69975.39	9706.03	468.089999999997	861.880000000005	207.490000000005	40.4600000000064	2887.172
946.78	15466.77	81917.24	69917.53	10381.91	477.149999999994	897.360000000001	203.270000000004	40.0200000000041	3467.055
946.68	14156.94	82586.16	69859.96	11065.73	486.489999999991	935.199999999997	199.189999999988	39.5899999999965	1430.742
946.58	13196.87	83252.95	69802.63	11744.25	496.099999999991	975.599999999991	195.220000000001	39.1699999999983	-253.4531
946.48	15225.78	83903.39	69745.52	12402.9	506	1018.86	191.37999999999	38.75	1067.906
946.38	15219.5	84518.78	69688.7	13022.71	516.180000000008	1065.21000000001	187.639999999999	38.3399999999965	389.4219
946.28	16094.64	85079.59	69632.16	13583.78	526.679999999993	1115.03999999999	184.01999999999	37.929999999993	647.2031
946.18	15162.27	85565.19	69575.93	14065.01	537.510000000009	1168.72	180.490000000005	37.5300000000134	-826.9844
946.08	15901.42	85954.59	69519.98	14445.11	548.660000000004	1226.63	177.070000000007	37.1399999999994	-533.1953
945.98	15775.06	86230.77	69464.34	14706.47	560.169999999998	1289.29000000001	173.730000000011	36.75	-991.3672
945.88	14799.91	86380.55	69408.99	14835.49	572.049999999988	1357.14999999999	170.509999999995	36.3799999999901	-2171.656
945.78	15681.57	86397.87	69353.93	14825.48	584.290000000008	1430.81000000001	167.360000000001	36	-1362.367
945.68	14833.14	86283.88	69299.16	14676.89	596.949999999997	1510.97	164.300000000003	35.6399999999994	-2151.586
945.58	15516.61	86047.18	69244.69	14397.71	610	1598.19	161.319999999992	35.2700000000041	-1285.883
945.48	14501.6	85702.41	69190.5	14001.74	623.490000000005	1693.34	158.419999999998	34.9100000000035	-2010.313
945.38	15158.3	85269.34	69136.6	13508.03	637.429999999993	1797.12999999999	155.599999999991	34.5599999999977	-974.4453
945.28	14871.02	84769.62	69082.98	12937.27	651.840000000011	1910.47	152.860000000001	34.2200000000012	-815.6172
945.18	14507.94	84225.17	69029.66	12310.36	666.739999999991	2034.34	150.179999999993	33.8699999999954	-687.5703
945.08	14836.08	83657.67	68976.62	11648.16	682.150000000009	2169.61	147.580000000002	33.5400000000082	155.0313
944.98	13690.45	83085.34	68923.85	10967.67	698.110000000001	2317.45999999999	145.049999999988	33.1999999999971	-471.0391
944.88	15079.45	82524.82	68871.35	10284.63	714.62999999999	2478.76999999999	142.569999999992	32.8799999999901	1425.977
944.78	13982.25	81988.97	68819.15	9610.69	731.720000000001	2654.69	140.160000000004	32.5500000000029	812.4297
944.68	15446.59	81487.82	68767.21	8954.62999999999	749.449999999997	2846.48	137.809999999998	32.2399999999907	2725.977
944.58	13031.71	81029.88	68715.59	8324.04000000001	767.809999999998	3054.99000000001	135.520000000004	31.9300000000076	717.4141
944.48	12828.2	80620.38	68664.2	7722.85000000001	786.860000000001	3281.57000000001	133.279999999999	31.6200000000099	872.0234
944.38	13371.24	80263.86	68613.06	7154.82000000001	806.610000000001	3526.96000000001	131.100000000006	31.320000000007	1720.438
944.28	13996.42	79962.8	68562.18	6621.27000000001	827.110000000001	3792.26000000001	128.980000000011	31.0200000000041	2595.797
944.18	12213.23	79718.7	68511.57	6122.59	848.409999999989	4078.51999999999	126.899999999994	30.7199999999866	1006.094
944.08	12791.01	79532.4	68461.19	5659.31	870.509999999995	4386.08	124.869999999995	30.429999999993	1719.805
943.98	12197.25	79403.59	68411.05	5230.17999999999	893.509999999995	4715.83	122.899999999994	30.1499999999942	1204.703
943.88	12432.35	79331.53	68361.15	4834.60000000001	917.400000000009	5067.55	120.960000000006	29.8600000000006	1461.969
943.78	11624.32	79314.64	68311.48	4470.90000000001	942.25	5441.33	119.070000000007	29.5800000000018	621.1563
943.68	12778.28	79350.74	68262.02	4137.25	968.14	5836.78	117.229999999996	29.3000000000029	1689.555
943.58	12406.58	79436.9	68212.82	3832.29999999999	995.089999999997	6252.23	115.429999999993	29.0399999999936	1182.5
943.48	12561.75	79569.42	68163.85	3553.78999999999	1023.17	6686.17	113.669999999998	28.7699999999895	1156.18
943.38	11484.87	79743.37	68115.13	3300.17	1052.42999999999	7135.17	111.959999999992	28.5099999999948	-143.3672
943.28	12133.97	79952.92	68066.63	3069.39	1082.95999999999	7595.44	110.279999999999	28.25	247.6797
943.18	11923.82	80191.13	68018.38	2859.42	1114.81999999999	8061.87	108.619999999995	27.9899999999907	-248.9219
943.08	12960.56	80448.98	67970.34	2668.77	1148.10000000001	8527.02000000001	107.029999999999	27.7400000000052	481.9219
942.98	12659.12	80716.79	67922.58	2495.42999999999	1182.87	8982.97	105.440000000002	27.4799999999959	-135.0859
942.88	13415.73	80982.63	67875.07	2338	1219.21999999999	9419.17999999999	103.909999999989	27.2399999999907	308.1719
942.78	12968.36	81233.88	67827.84	2194.83	1257.25	9824.56	102.410000000004	27	-437.6719
942.68	13200.62	81457.16	67780.88	2064.42	1297.08	10187.09	100.940000000002	26.7599999999948	-475.6641
942.58	14172	81638.52	67734.2	1945.61	1338.78	10493.92	99.5	26.5299999999988	267.6797
942.48	14717.47	81765.5	67687.83	1837.06	1382.53	10733.7	98.0800000000018	26.2899999999936	639.7969
942.38	13528.02	81827	67641.78	1737.81	1428.39999999999	10896.25	96.6999999999971	26.0599999999977	-657.2031
942.28	15186.48	81815.17	67596.02	1646.81999999999	1476.56	10974.59	95.3499999999913	25.8199999999924	967.3281
942.18	15110.1	81725.72	67550.6	1563.14999999999	1527.2	10965.13	94.0299999999989	25.6100000000006	934.9844
942.08	13987.38	81558.48	67505.52	1486.12	1580.39999999999	10868.32	92.7399999999907	25.3899999999994	-65.57813
941.98	13113.95	81317.15	67460.75	1414.95	1636.42	10688.41	91.4600000000064	25.1600000000035	-742.4453
941.88	12796.13	81009.37	67416.27	1349.09	1695.39	10433.43	90.2099999999919	24.9499999999971	-796.9688
941.78	12521.05	80645.02	67372.05	1287.98	1757.56	10113.71	89	24.7399999999907	-751.9219
941.68	12508.18	80235.6	67328.12	1231.08	1823.18000000001	9740.88000000001	87.8000000000029	24.5200000000041	-399.3047
941.58	13062.84	79793.83	67284.46	1178.06999999999	1892.45	9327.9	86.6299999999901	24.3199999999924	553.4688
941.48	12309.51	79331.23	67241.09	1128.5	1965.71000000001	8886.33	85.4800000000105	24.1100000000006	219.3672
941.38	11829.32	78859.38	67197.98	1082.11	2043.18000000001	8427.83	84.3700000000099	23.9199999999983	167.9141
941.28	12764.96	78387.73	67155.14	1038.58	2125.24000000001	7961.81	83.2599999999948	23.7100000000064	1532.367
941.18	10708.61	77924.34	67112.59	997.64	2212.3	7496.11	82.1800000000076	23.5100000000093	-103.1406
941.08	10405.94	77476.38	67070.26	959.130000000005	2304.69	7037.85000000001	81.1200000000099	23.320000000007	-0.171875
940.98	10972.65	77048.67	67028.15	922.790000000008	2402.96000000001	6591.57000000001	80.0800000000018	23.1200000000099	952.125
940.88	10787.11	76645.88	66986.29	888.5	2507.5	6161.59000000001	79.0600000000122	22.9400000000023	1127.516
940.78	8874.23999999999	76270.83	66944.66	856.069999999993	2618.92999999999	5750.34	78.0599999999977	22.75	-451.9297
940.68	9891.48999999999	75925.62	66903.21	825.369999999996	2737.98999999999	5359.40999999999	77.0799999999872	22.5599999999977	869.0859
940.58	9371.52000000001	75612.35	66861.98	796.290000000008	2865.27	4990.32000000001	76.1200000000099	22.3899999999994	621.1484
940.48	8883.15000000001	75331.88	66820.95	768.680000000008	3001.75	4643.14	75.1800000000076	22.1999999999971	372.2266
940.38	8614.89	75085.41	66780.11	742.479999999996	3148.22	4318.34	74.2400000000053	22.0200000000041	309.5938
940.28	9039.25	74873.52	66739.45	717.580000000002	3305.90000000001	4015.43000000001	73.3300000000018	21.8500000000058	905.1797
940.18	7802.32000000001	74696.81	66698.98	693.880000000005	3476.17	3733.68000000001	72.4400000000023	21.6800000000076	-195.5156
940.08	8553.70999999999	74556.09	66658.69	671.319999999993	3660.31999999999	3472.72	71.5500000000029	21.4899999999907	656.3047
939.98	8244.42999999999	74452.09	66618.57	649.819999999993	3860.34	3231.34	70.6999999999971	21.3299999999872	410.9141
939.88	6931.37	74385.81	66578.63	629.339999999997	4078.01	3008.84	69.8499999999913	21.1599999999889	-875.8125
939.78	9218.46000000001	74358.48	66538.84	609.779999999999	4315.82000000001	2804.02	69.0100000000093	20.9900000000052	1398.82
939.68	8757.85000000001	74371.84	66499.25	591.110000000001	4576.74000000001	2615.71000000001	68.1999999999971	20.8300000000017	885.2656
939.58	9719.34	74427.84	66459.86	573.270000000004	4863.64	2443.01	67.3999999999942	20.6600000000035	1751.359
939.48	9458.10000000001	74529.21	66420.7	556.210000000007	5180.59	2284.60000000001	66.6000000000058	20.5	1349.586
939.38	9302.05	74678.92	66381.75	539.89	5531.48	2139.62	65.8399999999965	20.3399999999965	1004.875
939.28	9754.37999999999	74880.78	66343.02	524.279999999999	5921.34999999999	2006.89	65.0699999999924	20.1900000000023	1216.617
939.18	10337.66	75139.48	66304.54	509.300000000003	6355.97	1885.32000000001	64.320000000007	20.0300000000134	1502.719
939.08	11837.2	75459.83	66266.3	494.970000000001	6840.98999999999	1774.11	63.5800000000018	19.8699999999953	2643.672
938.98	11475.66	75848.21	66228.34	481.220000000001	7383.86	1672.21000000001	62.8700000000099	19.7300000000105	1855.789
938.88	12050.21	76310.7	66190.69	468.020000000004	7991.4	1578.86	62.1499999999942	19.5800000000017	1930.195
938.78	11531.17	76854.88	66153.33	455.369999999995	8672.06999999999	1493.22	61.4499999999971	19.429999999993	829.625
938.68	14166.03	77489.05	66116.27	443.190000000002	9435.03	1414.5	60.7599999999948	19.2799999999988	2793.242
938.58	12816.54	78220.96	66079.56	431.510000000009	10288.52	1342.14	60.1000000000058	19.1399999999994	675.1406
938.48	14627.5	79060.3	66043.2	420.260000000009	11243	1275.41	59.4300000000076	18.9900000000052	1610.406
938.38	16970.89	80015.02	66007.21	409.459999999992	12306.88	1213.84	58.7699999999895	18.8499999999913	2963.086
938.28	15962.72	81094.59	65971.68	399.050000000003	13490.13	1156.88	58.1300000000047	18.7100000000064	839.8047
938.18	18127.12	82308.34	65936.58	389.039999999994	14802.6	1104.05	57.5	18.5699999999924	1755.367
938.08	19537.84	83662.47	65901.96	379.389999999999	16250.81	1055	56.8799999999901	18.4399999999878	1777.328
937.98	19026.42	85165.11	65867.88	370.089999999997	17843.26	1009.29999999999	56.2599999999948	18.2999999999884	-270.8125
937.88	22848.2	86818.67	65834.3	361.139999999999	19582.7	966.720000000001	55.6699999999983	18.1699999999983	1863.828
937.78	24617.24	88625.46	65801.36	352.490000000005	21471.62	926.89	55.0699999999924	18.0299999999988	1793.141
937.68	26076.61	90583.83	65769.09	344.150000000009	23508.63	889.570000000007	54.5	17.9100000000035	1261.875
937.58	28495.75	92682.42	65737.55	336.110000000001	25682.53	854.559999999998	53.9199999999983	17.7799999999988	1550.875
937.48	31534.8	94906.91	65706.8	328.330000000002	27979.16	821.62999999999	53.3600000000006	17.6499999999942	2334.695
937.38	31909.96	97226.92	65676.94	320.809999999998	30368.23	790.619999999996	52.7899999999936	17.5099999999948	359.9766
937.28	34581.04	99602.78	65647.96	313.559999999998	32810.24	761.39	52.2399999999907	17.3899999999994	626.2188
937.18	38361.05	101979	65619.95	306.540000000008	35249.75	733.75	51.7100000000064	17.2700000000041	2002.023
937.08	40309.97	104278.2	65593.03	299.759999999995	37609.47	707.610000000001	51.1800000000076	17.1499999999942	1624.82
936.98	41449.76	106412	65567.24	293.189999999988	39801.06	682.849999999991	50.659999999989	17.0299999999988	604.9844
936.88	43842.37	108274.4	65542.63	286.830000000002	41718.47	659.360000000001	50.1399999999994	16.8999999999942	1110.641
936.78	43566.75	109759.5	65519.25	280.690000000002	43256.05	637.070000000007	49.6300000000047	16.7799999999988	-673.5156
936.68	43934.9	110769.9	65497.1	274.730000000003	44316.4	615.870000000003	49.1299999999974	16.6699999999983	-1337.922
936.58	44926.8	111230	65476.2	268.960000000006	44824	595.710000000007	48.6399999999994	16.5500000000029	-827.0313
936.48	45210.44	111102.8	65456.56	263.369999999995	44741.74	576.520000000004	48.1600000000035	16.4400000000023	-435.7813
936.38	44014.79	110394.4	65438.21	257.950000000004	44076.09	558.230000000003	47.6800000000003	16.3300000000017	-941.4219
936.28	42274.88	109153.7	65421.12	252.689999999995	42875.68	540.769999999997	47.2099999999991	16.1999999999971	-1457.688
936.18	41688.78	107461.5	65405.22	247.589999999997	41221.68	524.110000000001	46.739999999998	16.0999999999985	-367.4688
936.08	39485.5	105421.7	65390.5	242.660000000004	39218.1	508.210000000007	46.2900000000009	15.989999999998	-545.7109
935.98	37966.09	103139.1	65376.91	237.849999999991	36969.69	492.989999999991	45.8399999999965	15.8799999999974	203.8906
935.88	37647.61	100717	65364.39	233.199999999997	34579.86	478.449999999997	45.4000000000015	15.7700000000041	2294.969
935.78	34073.05	98240.81	65352.95	228.669999999998	32134.04	464.529999999999	44.9600000000064	15.6600000000035	1185.188
935.68	32612.22	95778.23	65342.48	224.260000000002	29700.21	451.18	44.5199999999968	15.5499999999956	2176.477
935.58	30307.47	93384.5	65332.93	219.989999999998	27333.6	438.409999999996	44.0999999999986	15.4499999999971	2255.898
935.48	27704.46	91093.58	65324.24	215.849999999999	25068.3	426.159999999996	43.6900000000023	15.3499999999985	1935.125
935.38	27546.86	88932.38	65316.34	211.820000000007	22931.3	414.410000000004	43.2800000000061	15.25	3930.828
935.28	25110.37	86913.77	65309.23	207.899999999994	20935.5	403.139999999992	42.8699999999954	15.1499999999942	3505.836
935.18	23356.16	85043.4	65302.84	204.070000000007	19086.68	392.290000000008	42.4600000000064	15.0400000000009	3615.602
935.08	20331.89	83324.84	65297.11	200.349999999999	17388.47	381.889999999999	42.0699999999997	14.9400000000023	2304.156
934.98	18798.25	81753.33	65291.95	196.75	15836.22	371.889999999999	41.6800000000003	14.8400000000038	2336.875
934.88	18312.96	80325.38	65287.34	193.230000000003	14426.5	362.260000000009	41.2900000000009	14.7400000000052	3274.914
934.78	15967.56	79032.78	65283.24	189.800000000003	13151.17	353.000000000007	40.9200000000055	14.6399999999994	2218.016
934.68	14479.7	77866.38	65279.6	186.470000000001	12001.11	344.099999999999	40.5400000000009	14.5500000000029	1892.922
934.58	13644.82	76818.33	65276.38	183.220000000001	10968.59	335.500000000007	40.1700000000055	14.4500000000044	2102.875
934.48	11400.96	75877.86	65273.54	180.059999999998	10042.85	327.230000000003	39.8099999999977	14.3600000000006	796.6406
934.38	12467.57	75036.44	65271.03	176.970000000001	9215.45	319.259999999995	39.4500000000044	14.2700000000041	2702.164
934.28	10879.33	74284.14	65268.87	173.969999999994	8476.45000000001	311.579999999995	39.0999999999986	14.1800000000003	1864.063
934.18	9879.27000000001	73611.48	65267.03	171.040000000001	7816.42	304.160000000004	38.739999999998	14.0800000000017	1534.82
934.08	7498.73	73010.68	65265.47	168.190000000002	7227.63000000001	297	38.4000000000015	13.989999999998	-246.4766
933.98	8161.98000000001	72473	65264.12	165.399999999994	6701.41	290.090000000004	38.0599999999977	13.8999999999942	953.1016
933.88	7255.88999999999	71991.69	65263.01	162.68	6231.04	283.409999999996	37.7200000000012	13.8099999999977	527.2109
933.78	6542.20000000001	71559.79	65262.1	160.040000000001	5809.56000000001	276.970000000008	37.4000000000015	13.7300000000032	244.5078
933.68	4993.22000000001	71171.02	65261.38	157.450000000004	5430.76	270.730000000003	37.0699999999997	13.6399999999994	-916.4141
933.58	5009.49000000001	70820.51	65260.81	154.920000000006	5089.77	264.700000000004	36.7400000000052	13.5500000000029	-550.2109
933.48	3649.52	70503.08	65260.38	152.459999999999	4781.48	258.870000000003	36.4200000000055	13.4700000000012	-1593.18
933.38	3476.65	70214.98	65260.05	150.049999999996	4502.16	253.229999999996	36.1199999999954	13.3899999999994	-1478.273
933.28	4004.17	69952.42	65259.83	147.699999999997	4248.03999999999	247.769999999997	35.7999999999956	13.2999999999956	-688.4219
933.18	2138.78	69712.2	65259.72	145.400000000001	4015.9	242.479999999996	35.489999999998	13.2099999999991	-2313.703
933.08	3566.53	69491.87	65259.67	143.160000000004	3803.36	237.349999999999	35.1900000000023	13.1300000000047	-665.6641
932.98	2720.58	69288.91	65259.72	140.970000000001	3607.9	232.389999999999	34.9000000000015	13.0499999999956	-1308.609
932.88	2084.14	69101.61	65259.86	138.82	3427.77	227.580000000002	34.5999999999986	12.9700000000012	-1757.609
932.78	1682.75	68928.11	65260.05	136.729999999996	3261.2	222.919999999998	34.3099999999977	12.8899999999994	-1985.313
932.68	1664.41	68766.84	65260.29	134.690000000002	3106.65	218.389999999999	34.0199999999968	12.8199999999997	-1842.141
932.58	1780.31999999999	68616.8	65260.58	132.689999999995	2963.06	214.009999999995	33.739999999998	12.739999999998	-1575.898
932.48	181.870000000003	68476.7	65260.93	130.720000000001	2829.19	209.739999999998	33.4499999999971	12.6500000000015	-3033.902
932.38	115.630000000005	68345.74	65261.27	128.810000000005	2704.29	205.620000000003	33.1800000000003	12.5800000000017	-2968.844
932.28	305.769999999997	68223.03	65261.63	126.93	2587.46	201.600000000006	32.9000000000015	12.5	-2655.633
932.18	1191.91	68107.78	65261.99	125.099999999999	2477.92000000001	197.700000000004	32.6399999999994	12.4200000000055	-1653.883
932.08	233.309999999998	67999.52	65262.39	123.309999999998	2375.19	193.910000000004	32.3700000000026	12.3499999999985	-2503.824
931.98	536.109999999993	67897.55	65262.79	121.549999999996	2278.57999999999	190.229999999996	32.0999999999986	12.2799999999988	-2098.648
931.88	-103.309999999998	67801.48	65263.21	119.840000000004	2187.73	186.660000000004	31.8499999999986	12.2000000000044	-2641.586
931.78	828.269999999997	67710.8	65263.63	118.160000000004	2102.11000000001	183.18	31.5900000000038	12.1300000000047	-1618.898
931.68	-975.269999999997	67625.08	65264.07	116.510000000002	2021.31000000001	179.800000000003	31.3400000000038	12.0599999999977	-3336.277
931.58	610.810000000005	67544	65264.49	114.889999999999	1945.04	176.510000000002	31.0800000000018	11.9800000000032	-1668.703
931.48	1189.38	67467.2	65264.92	113.32	1872.91	173.310000000005	30.8400000000038	11.9199999999983	-1012.898
931.38	99.9100000000035	67394.47	65265.39	111.770000000004	1804.69	170.190000000002	30.5900000000038	11.8400000000038	-2029.168
931.28	-907.160000000004	67325.46	65265.86	110.260000000002	1740.08	167.159999999996	30.3499999999986	11.7799999999988	-2966.762
931.18	-476.610000000001	67259.88	65266.31	108.770000000004	1678.78	164.209999999999	30.1100000000006	11.7099999999991	-2470.176
931.08	595.649999999994	67197.56	65266.75	107.309999999998	1620.64999999999	161.330000000002	29.8700000000026	11.6299999999974	-1335.164
930.98	744.699999999997	67138.23	65267.2	105.880000000005	1565.41	158.530000000006	29.6399999999994	11.5699999999997	-1126.336
930.88	-536.869999999995	67081.81	65267.67	104.490000000005	1512.95	155.800000000003	29.4100000000035	11.5	-2351.012
930.78	670.769999999997	67028.03	65268.13	103.120000000003	1463.03000000001	153.139999999999	29.1800000000003	11.4400000000023	-1089.133
930.68	139.589999999997	66976.74	65268.61	101.769999999997	1415.5	150.550000000003	28.9599999999991	11.3700000000026	-1568.543
930.58	1018.9	66927.83	65269.1	100.450000000004	1370.23	148.020000000004	28.7300000000032	11.3000000000029	-639.8281
930.48	117.889999999999	66881.11	65269.61	99.1599999999962	1327.05	145.550000000003	28.510000000002	11.239999999998	-1493.609
930.38	-158.629999999997	66836.52	65270.13	97.8899999999994	1285.88	143.150000000001	28.2900000000009	11.1700000000055	-1725.016
930.28	36.3600000000006	66793.85	65270.64	96.6500000000015	1246.58	140.809999999998	28.0800000000018	11.1100000000006	-1486.852
930.18	-216.260000000002	66753	65271.16	95.4199999999983	1209	138.509999999995	27.8599999999933	11.0399999999936	-1698.102
930.08	-149.260000000002	66713.92	65271.66	94.2299999999959	1173.11	136.289999999994	27.6599999999962	10.9799999999959	-1591.523
929.98	-120.369999999995	66676.44	65272.17	93.0500000000029	1138.74000000001	134.099999999999	27.4500000000044	10.9199999999983	-1524.637
929.88	-594.580000000002	66640.53	65272.68	91.8899999999994	1105.87	131.970000000001	27.239999999998	10.8600000000006	-1962.43
929.78	-1060.96000000001	66606.06	65273.16	90.7699999999968	1074.39999999999	129.899999999994	27.0399999999936	10.7999999999956	-2393.863
929.68	-90.5200000000041	66572.92	65273.62	89.6499999999942	1044.21	127.860000000001	26.8299999999945	10.7299999999959	-1389.82
929.58	31.0299999999988	66541.11	65274.07	88.5599999999977	1015.29	125.879999999997	26.6399999999994	10.6800000000003	-1236.008
929.48	-885.229999999996	66510.54	65274.53	87.489999999998	987.520000000004	123.940000000002	26.4400000000023	10.6100000000006	-2121.238
929.38	-162.559999999998	66481.13	65274.96	86.4300000000003	960.879999999998	122.050000000003	26.239999999998	10.5500000000029	-1368.734
929.28	-251.68	66452.84	65275.38	85.4100000000035	935.299999999996	120.209999999999	26.0500000000029	10.5	-1429.145
929.18	-60.5	66425.59	65275.8	84.3999999999942	910.709999999992	118.399999999994	25.8699999999954	10.4399999999951	-1210.293
929.08	-1405.72	66399.37	65276.22	83.4000000000015	887.069999999993	116.629999999997	25.6699999999983	10.3899999999994	-2528.867
928.98	263.900000000002	66374.05	65276.6	82.4199999999983	864.32	114.900000000001	25.489999999998	10.3300000000017	-833.5469
928.88	-1717.09	66349.65	65276.99	81.4500000000044	842.439999999995	113.200000000004	25.3000000000029	10.260000000002	-2789.75
928.78	-388.620000000003	66326.09	65277.32	80.5100000000021	821.379999999998	111.559999999998	25.1299999999974	10.2200000000012	-1437.387
928.68	-469.050000000003	66303.33	65277.65	79.5800000000018	801.079999999995	109.93	24.9399999999951	10.1599999999962	-1494.727
928.58	347.140000000007	66281.36	65277.96	78.6699999999983	781.530000000006	108.349999999999	24.7700000000041	10.0999999999985	-656.2578
928.48	-1332.19	66260.14	65278.29	77.7600000000021	762.659999999996	106.799999999996	24.5899999999965	10.0400000000009	-2314.039
928.38	262.629999999997	66239.63	65278.57	76.8899999999994	744.489999999998	105.290000000001	24.4100000000035	9.98999999999796	-698.4219
928.28	695.529999999992	66219.8	65278.87	76.0099999999948	726.939999999995	103.790000000001	24.239999999998	9.93000000000029	-245.3984
928.18	423.219999999994	66200.63	65279.18	75.1599999999962	709.999999999993	102.339999999997	24.0699999999997	9.87999999999738	-498.2344
928.08	-838.209999999999	66182.13	65279.51	74.3199999999997	693.650000000002	100.919999999998	23.9000000000015	9.82999999999447	-1740.832
927.98	-689.110000000001	66164.16	65279.81	73.4900000000053	677.839999999997	99.5200000000041	23.7300000000032	9.77000000000408	-1573.465
927.88	-618.39	66146.8	65280.09	72.6900000000023	662.580000000002	98.1600000000035	23.570000000007	9.7300000000032	-1485.098
927.78	-281.260000000002	66129.95	65280.36	71.8799999999974	647.809999999998	96.8199999999997	23.4000000000015	9.66999999999826	-1130.852
927.68	-172.309999999998	66113.63	65280.61	71.0999999999986	633.539999999994	95.5100000000021	23.239999999998	9.62000000000262	-1005.324
927.58	-482.57	66097.78	65280.87	70.3299999999945	619.719999999994	94.2199999999939	23.0799999999945	9.55999999999767	-1299.48
927.48	-1137.41	66082.42	65281.11	69.5699999999997	606.339999999997	92.9599999999991	22.9199999999983	9.51000000000204	-1938.723
927.38	-729.709999999999	66067.52	65281.31	68.8300000000018	593.410000000004	91.7300000000032	22.760000000002	9.47000000000117	-1515.914
927.28	-78.6999999999971	66053	65281.5	68.0899999999965	580.869999999995	90.5199999999968	22.6100000000006	9.41000000000349	-850.1992
927.18	-256.480000000003	66038.92	65281.68	67.3600000000006	568.730000000003	89.3399999999965	22.4499999999971	9.37000000000262	-1013.723
927.08	6.33999999999651	66025.26	65281.86	66.6500000000015	556.949999999997	88.1699999999983	22.3000000000029	9.31999999999971	-737.0586
926.98	-1287.14	66011.98	65282.04	65.9400000000023	545.540000000001	87.0299999999989	22.1399999999994	9.26000000000204	-2017.086
926.88	526.029999999999	65999.06	65282.17	65.2600000000021	534.490000000005	85.9199999999983	22	9.22000000000117	-190.8594
926.78	384.369999999995	65986.49	65282.33	64.5800000000018	523.75	84.8099999999977	21.8499999999985	9.16999999999826	-319.7891
926.68	-1596.89	65974.3	65282.49	63.9200000000055	513.330000000009	83.7400000000053	21.7099999999991	9.13000000000466	-2288.695
926.58	17.7900000000009	65962.42	65282.61	63.2600000000021	503.229999999996	82.6900000000023	21.5699999999997	9.08000000000175	-662.0234
926.48	-943.230000000003	65950.84	65282.73	62.6099999999933	493.409999999996	81.6499999999942	21.4199999999983	9.0399999999936	-1611.344
926.38	-703.43	65939.58	65282.83	61.9700000000012	483.880000000005	80.6299999999974	21.2799999999988	8.97999999999593	-1360.18
926.28	-76.4000000000015	65928.56	65282.9	61.3399999999965	474.620000000003	79.6399999999994	21.1399999999994	8.93999999999505	-722.0625
926.18	-338.880000000005	65917.86	65282.98	60.7199999999939	465.620000000003	78.6499999999942	20.989999999998	8.88999999999942	-973.7578
926.08	-1648.04	65907.42	65283.04	60.0999999999986	456.870000000003	77.6900000000023	20.8499999999985	8.83999999999651	-2272.422
925.98	21.8499999999985	65897.2	65283.05	59.5099999999948	448.37999999999	76.75	20.7199999999939	8.79999999999564	-592.3047
925.88	-384.169999999998	65887.26	65283.07	58.9100000000035	440.109999999993	75.8199999999997	20.5800000000017	8.75	-988.3594
925.78	896.329999999995	65877.54	65283.07	58.3300000000018	432.07	74.9100000000035	20.4499999999971	8.70999999999913	301.8594
925.68	163.400000000001	65868.11	65283.1	57.7600000000021	424.239999999998	74.0200000000041	20.3199999999997	8.66999999999826	-421.6094
925.58	732.759999999995	65858.91	65283.14	57.1900000000023	416.630000000005	73.1299999999974	20.1800000000003	8.62000000000262	156.9922
925.48	-809.599999999999	65849.95	65283.2	56.6300000000047	409.210000000007	72.2700000000041	20.0500000000029	8.58000000000175	-1376.352
925.38	-1133.13	65841.2	65283.23	56.0799999999945	401.999999999993	71.4199999999983	19.9300000000003	8.5399999999936	-1691.102
925.28	-153.530000000006	65832.64	65283.23	55.5399999999936	394.969999999994	70.5899999999965	19.7999999999956	8.48999999999796	-702.9414
925.18	137.879999999997	65824.27	65283.22	55.0100000000021	388.130000000005	69.7799999999989	19.6800000000003	8.45999999999913	-403.1641
925.08	391.679999999993	65816.09	65283.22	54.489999999998	381.459999999992	68.9700000000012	19.5499999999956	8.40999999999622	-532.8711
